IV MEASUREMENT
:start
2012-08-09 12:43:25
:stop
2012-08-09 12:57:36
:device
MCZ200Y_06_DiodeL_11
:tester
coralie
:atmosphere
Air
:environment
Probe Station
:Instruments
VI Kei6517A,CV AgE4980A,GI Kei6485,T ATTcontroller
:Comment
cold2, irr 5E13p/cm² (KA), 20°C
Annealing time [min]:
0@0
:temperature [C]
20.000000
:start,stop voltage [V] & number of points
0.000000,700.000000,89
:Voltage increment and increment speed
2.000000,0.300000
:polarity and ramp mode
negative,0
:Current meter range
Auto
:Averaging (int,ext,NPLC,Median Rank)
3,5
3.000000
3
:legend
bias [V],T[C],Current[Amp],Guard Current[Amp]
BEGIN
0.000000E+0	2.000000E+1	-5.447406E-8	-7.555878E-9
1.000000E+0	2.000000E+1	-2.443500E-6	-3.604064E-7
2.000000E+0	2.000000E+1	-2.783272E-6	-6.142605E-7
3.000000E+0	2.000000E+1	-3.241996E-6	-8.186617E-7
4.000000E+0	2.000000E+1	-3.628824E-6	-9.653386E-7
5.000000E+0	2.000000E+1	-3.968284E-6	-1.087759E-6
6.000000E+0	2.000000E+1	-4.272650E-6	-1.194553E-6
7.000000E+0	2.000000E+1	-4.552076E-6	-1.289721E-6
8.000000E+0	2.000000E+1	-4.803474E-6	-1.374257E-6
9.000000E+0	2.000000E+1	-5.036932E-6	-1.451854E-6
1.000000E+1	2.000000E+1	-5.260876E-6	-1.525295E-6
1.500000E+1	2.000000E+1	-6.296274E-6	-1.797590E-6
2.000000E+1	2.000000E+1	-7.152058E-6	-2.120740E-6
2.500000E+1	2.000000E+1	-7.883830E-6	-2.298900E-6
3.000000E+1	2.000000E+1	-8.527102E-6	-2.500002E-6
3.500000E+1	2.000000E+1	-9.088600E-6	-2.678905E-6
4.000000E+1	2.000000E+1	-9.590496E-6	-2.841308E-6
4.500000E+1	2.000000E+1	-1.004430E-5	-2.992321E-6
5.000000E+1	2.000000E+1	-1.045761E-5	-3.132043E-6
5.500000E+1	2.000000E+1	-1.082105E-5	-3.259174E-6
6.000000E+1	2.000000E+1	-1.113941E-5	-3.375207E-6
6.500000E+1	2.000000E+1	-1.141063E-5	-3.479229E-6
7.000000E+1	2.000000E+1	-1.163814E-5	-3.572770E-6
7.500000E+1	2.000000E+1	-1.183755E-5	-3.659878E-6
8.000000E+1	2.000000E+1	-1.202107E-5	-3.743777E-6
8.500000E+1	2.000000E+1	-1.218638E-5	-3.821733E-6
9.000000E+1	2.000000E+1	-1.232009E-5	-3.891761E-6
9.500000E+1	2.000000E+1	-1.242240E-5	-3.952958E-6
1.000000E+2	2.000000E+1	-1.249107E-5	-4.005960E-6
1.100000E+2	2.000000E+1	-1.259189E-5	-4.096620E-6
1.200000E+2	2.000000E+1	-1.266351E-5	-4.187612E-6
1.300000E+2	2.000000E+1	-1.272550E-5	-4.267189E-6
1.400000E+2	2.000000E+1	-1.277250E-5	-4.335915E-6
1.500000E+2	2.000000E+1	-1.280833E-5	-4.395105E-6
1.600000E+2	2.000000E+1	-1.283046E-5	-4.446259E-6
1.700000E+2	2.000000E+1	-1.285118E-5	-4.493771E-6
1.800000E+2	2.000000E+1	-1.288353E-5	-4.542645E-6
1.900000E+2	2.000000E+1	-1.292508E-5	-4.590150E-6
2.000000E+2	2.000000E+1	-1.295904E-5	-4.632904E-6
2.100000E+2	2.000000E+1	-1.298685E-5	-4.670243E-6
2.200000E+2	2.000000E+1	-1.300167E-5	-4.702953E-6
2.300000E+2	2.000000E+1	-1.301941E-5	-4.735063E-6
2.400000E+2	2.000000E+1	-1.305152E-5	-4.771118E-6
2.500000E+2	2.000000E+1	-1.309307E-5	-4.807267E-6
2.600000E+2	2.000000E+1	-1.312700E-5	-4.840498E-6
2.700000E+2	2.000000E+1	-1.315835E-5	-4.869470E-6
2.800000E+2	2.000000E+1	-1.317273E-5	-4.893582E-6
2.900000E+2	2.000000E+1	-1.318990E-5	-4.917838E-6
3.000000E+2	2.000000E+1	-1.322193E-5	-4.947580E-6
3.100000E+2	2.000000E+1	-1.326614E-5	-4.978281E-6
3.200000E+2	2.000000E+1	-1.330266E-5	-5.006260E-6
3.300000E+2	2.000000E+1	-1.333724E-5	-5.031346E-6
3.400000E+2	2.000000E+1	-1.335183E-5	-5.049503E-6
3.500000E+2	2.000000E+1	-1.336760E-5	-5.068921E-6
3.600000E+2	2.000000E+1	-1.339888E-5	-5.094063E-6
3.700000E+2	2.000000E+1	-1.344476E-5	-5.121639E-6
3.800000E+2	2.000000E+1	-1.348411E-5	-5.146792E-6
3.900000E+2	2.000000E+1	-1.351957E-5	-5.168632E-6
4.000000E+2	2.000000E+1	-1.353529E-5	-5.183724E-6
4.100000E+2	2.000000E+1	-1.355177E-5	-5.200944E-6
4.200000E+2	2.000000E+1	-1.358796E-5	-5.224595E-6
4.300000E+2	2.000000E+1	-1.363325E-5	-5.249428E-6
4.400000E+2	2.000000E+1	-1.367310E-5	-5.271870E-6
4.500000E+2	2.000000E+1	-1.370322E-5	-5.289837E-6
4.600000E+2	2.000000E+1	-1.372154E-5	-5.304148E-6
4.700000E+2	2.000000E+1	-1.374404E-5	-5.320713E-6
4.800000E+2	2.000000E+1	-1.378427E-5	-5.343313E-6
4.900000E+2	2.000000E+1	-1.382915E-5	-5.366126E-6
5.000000E+2	2.000000E+1	-1.386732E-5	-5.387066E-6
5.100000E+2	2.000000E+1	-1.390054E-5	-5.403586E-6
5.200000E+2	2.000000E+1	-1.391658E-5	-5.416218E-6
5.300000E+2	2.000000E+1	-1.393676E-5	-5.430298E-6
5.400000E+2	2.000000E+1	-1.397338E-5	-5.451274E-6
5.500000E+2	2.000000E+1	-1.402305E-5	-5.474410E-6
5.600000E+2	2.000000E+1	-1.406622E-5	-5.495989E-6
5.700000E+2	2.000000E+1	-1.410685E-5	-5.514317E-6
5.800000E+2	2.000000E+1	-1.412027E-5	-5.523510E-6
5.900000E+2	2.000000E+1	-1.413556E-5	-5.535710E-6
6.000000E+2	2.000000E+1	-1.417347E-5	-5.555417E-6
6.100000E+2	2.000000E+1	-1.422057E-5	-5.577400E-6
6.200000E+2	2.000000E+1	-1.426094E-5	-5.596420E-6
6.300000E+2	2.000000E+1	-1.429238E-5	-5.611284E-6
6.400000E+2	2.000000E+1	-1.431156E-5	-5.622706E-6
6.500000E+2	2.000000E+1	-1.433515E-5	-5.636870E-6
6.600000E+2	2.000000E+1	-1.437746E-5	-5.657382E-6
6.700000E+2	2.000000E+1	-1.442586E-5	-5.679188E-6
6.800000E+2	2.000000E+1	-1.446707E-5	-5.698788E-6
6.900000E+2	2.000000E+1	-1.449733E-5	-5.712365E-6
7.000000E+2	2.000000E+1	-1.451375E-5	-5.723066E-6
END